Frequency (Hz)	Level (dB)
23.437500	-53.854591
46.875000	-46.031235
70.312500	-50.267391
93.750000	-64.122475
117.187500	-65.064545
140.625000	-73.250298
164.062500	-74.627251
187.500000	-75.523468
210.937500	-77.322647
234.375000	-84.341736
257.812500	-83.716293
281.250000	-76.089615
304.687500	-72.507843
328.125000	-74.540985
351.562500	-70.252907
375.000000	-76.173264
398.437500	-77.780800
421.875000	-79.150925
445.312500	-72.483864
468.750000	-75.525887
492.187500	-83.607597
515.625000	-85.197334
539.062500	-87.140755
562.500000	-86.809563
585.937500	-85.422829
609.375000	-82.649178
632.812500	-75.259758
656.250000	-72.479637
679.687500	-80.569275
703.125000	-86.985802
726.562500	-82.988365
750.000000	-76.661987
773.437500	-81.706543
796.875000	-86.036613
820.312500	-88.852562
843.750000	-87.223541
867.187500	-88.440338
890.625000	-88.609291
914.062500	-86.405853
937.500000	-81.048958
960.937500	-80.304153
984.375000	-90.429855
1007.812500	-92.806755
1031.250000	-92.905579
1054.687500	-89.455437
1078.125000	-94.107468
1101.562500	-93.744064
1125.000000	-94.252388
1148.437500	-89.314201
1171.875000	-92.462173
1195.312500	-98.222992
1218.750000	-95.804092
1242.187500	-87.013329
1265.625000	-87.700615
1289.062500	-92.612465
1312.500000	-92.928665
1335.937500	-94.968140
1359.375000	-92.749954
1382.812500	-93.415672
1406.250000	-90.672173
1429.687500	-89.252441
1453.125000	-85.997055
1476.562500	-84.991783
1500.000000	-86.720154
1523.437500	-90.840683
1546.875000	-89.378860
1570.312500	-89.929138
1593.750000	-91.141815
1617.187500	-91.422234
1640.625000	-91.846870
1664.062500	-92.704269
1687.500000	-93.099907
1710.937500	-92.093231
1734.375000	-89.547974
1757.812500	-87.283363
1781.250000	-87.733215
1804.687500	-85.857506
1828.125000	-83.882645
1851.562500	-82.730598
1875.000000	-82.251282
1898.437500	-81.941429
1921.875000	-80.213356
1945.312500	-76.974113
1968.750000	-73.525757
1992.187500	-71.432846
2015.625000	-71.828232
2039.062500	-72.781082
2062.500000	-72.614349
2085.937500	-72.573433
2109.375000	-73.532387
2132.812500	-76.667473
2156.250000	-81.298264
2179.687500	-85.300011
2203.125000	-86.526726
2226.562500	-86.437737
2250.000000	-87.927910
2273.437500	-89.698578
2296.875000	-90.641640
2320.312500	-89.916023
2343.750000	-88.124458
2367.187500	-87.859512
2390.625000	-87.559464
2414.062500	-87.818436
2437.500000	-90.290558
2460.937500	-92.926056
2484.375000	-92.259377
2507.812500	-89.367699
2531.250000	-88.343208
2554.687500	-88.771080
2578.125000	-90.474930
2601.562500	-92.394905
2625.000000	-92.822891
2648.437500	-91.101875
2671.875000	-90.320908
2695.312500	-90.562561
2718.750000	-91.973938
2742.187500	-94.241753
2765.625000	-96.770515
2789.062500	-99.805855
2812.500000	-98.753273
2835.937500	-95.023018
2859.375000	-93.255951
2882.812500	-92.245407
2906.250000	-90.576668
2929.687500	-90.611191
2953.125000	-91.020721
2976.562500	-91.459145
3000.000000	-92.987335
3023.437500	-94.781219
3046.875000	-95.527802
3070.312500	-96.570511
3093.750000	-97.638245
3117.187500	-100.230217
3140.625000	-99.801491
3164.062500	-93.729523
3187.500000	-91.054451
3210.937500	-90.272385
3234.375000	-89.811317
3257.812500	-89.600746
3281.250000	-86.053391
3304.687500	-81.819695
3328.125000	-79.542824
3351.562500	-78.795898
3375.000000	-78.735306
3398.437500	-78.922409
3421.875000	-80.406082
3445.312500	-81.877785
3468.750000	-83.632767
3492.187500	-85.078857
3515.625000	-85.789001
3539.062500	-87.330696
3562.500000	-88.920364
3585.937500	-90.083984
3609.375000	-91.769722
3632.812500	-95.185265
3656.250000	-99.802742
3679.687500	-102.435539
3703.125000	-100.515396
3726.562500	-98.913826
3750.000000	-97.867767
3773.437500	-99.452652
3796.875000	-100.298187
3820.312500	-99.104172
3843.750000	-95.678986
3867.187500	-92.049049
3890.625000	-89.302284
3914.062500	-87.359444
3937.500000	-85.970589
3960.937500	-84.615265
3984.375000	-83.193352
4007.812500	-82.459343
4031.250000	-82.454407
4054.687500	-82.915970
4078.125000	-84.135124
4101.562500	-85.644791
4125.000000	-86.650940
4148.437500	-87.437859
4171.875000	-88.127045
4195.312500	-89.820381
4218.750000	-92.620911
4242.187500	-95.967613
4265.625000	-99.207657
4289.062500	-96.950600
4312.500000	-93.447220
4335.937500	-91.418228
4359.375000	-90.939743
4382.812500	-91.595047
4406.250000	-92.999496
4429.687500	-94.510521
4453.125000	-94.289650
4476.562500	-93.830452
4500.000000	-93.234322
4523.437500	-92.638084
4546.875000	-91.365044
4570.312500	-90.703667
4593.750000	-90.854378
4617.187500	-91.118271
4640.625000	-91.475166
4664.062500	-91.668983
4687.500000	-90.285469
4710.937500	-88.134857
4734.375000	-86.486328
4757.812500	-85.234123
4781.250000	-84.106903
4804.687500	-82.977982
4828.125000	-82.417801
4851.562500	-82.319778
4875.000000	-82.263039
4898.437500	-82.356209
4921.875000	-82.533295
4945.312500	-83.169891
4968.750000	-84.951378
4992.187500	-86.994698
5015.625000	-89.649567
5039.062500	-94.119476
5062.500000	-96.852890
5085.937500	-90.797539
5109.375000	-85.935127
5132.812500	-82.166229
5156.250000	-79.479637
5179.687500	-77.552757
5203.125000	-76.246262
5226.562500	-74.767082
5250.000000	-73.399773
5273.437500	-72.734680
5296.875000	-72.427086
5320.312500	-72.332474
5343.750000	-72.284637
5367.187500	-72.702003
5390.625000	-73.165314
5414.062500	-74.017555
5437.500000	-75.101570
5460.937500	-76.162689
5484.375000	-77.534203
5507.812500	-78.581718
5531.250000	-78.864151
5554.687500	-78.964722
5578.125000	-79.341682
5601.562500	-78.864044
5625.000000	-77.999367
5648.437500	-78.044441
5671.875000	-78.461578
5695.312500	-79.124336
5718.750000	-79.787781
5742.187500	-80.856583
5765.625000	-82.435303
5789.062500	-83.129387
5812.500000	-83.586945
5835.937500	-82.951721
5859.375000	-82.336136
5882.812500	-81.491982
5906.250000	-81.273918
5929.687500	-81.044380
5953.125000	-81.573967
5976.562500	-81.932144
6000.000000	-81.835060
6023.437500	-81.778557
6046.875000	-81.105301
6070.312500	-81.032631
6093.750000	-81.043900
6117.187500	-80.930901
6140.625000	-81.112679
6164.062500	-80.906441
6187.500000	-80.597107
6210.937500	-80.674294
6234.375000	-81.566330
6257.812500	-82.481705
6281.250000	-83.899925
6304.687500	-85.792274
6328.125000	-87.901588
6351.562500	-89.560173
6375.000000	-90.469772
6398.437500	-90.699699
6421.875000	-90.753014
6445.312500	-91.013382
6468.750000	-91.043915
6492.187500	-90.062706
6515.625000	-88.880028
6539.062500	-87.807510
6562.500000	-87.016884
6585.937500	-86.736389
6609.375000	-87.181602
6632.812500	-88.138901
6656.250000	-89.834366
6679.687500	-91.924408
6703.125000	-93.937531
6726.562500	-95.138039
6750.000000	-93.109138
6773.437500	-90.852730
6796.875000	-89.545647
6820.312500	-88.605370
6843.750000	-87.903709
6867.187500	-86.778076
6890.625000	-85.603615
6914.062500	-83.808365
6937.500000	-81.950897
6960.937500	-80.932831
6984.375000	-80.462868
7007.812500	-80.045021
7031.250000	-80.086479
7054.687500	-79.989662
7078.125000	-80.288574
7101.562500	-80.472038
7125.000000	-81.021461
7148.437500	-81.990089
7171.875000	-82.613274
7195.312500	-82.664429
7218.750000	-83.597183
7242.187500	-84.649101
7265.625000	-85.619461
7289.062500	-85.890816
7312.500000	-86.411736
7335.937500	-86.794456
7359.375000	-87.357117
7382.812500	-87.758484
7406.250000	-88.169319
7429.687500	-88.595993
7453.125000	-89.042419
7476.562500	-89.571945
7500.000000	-90.181625
7523.437500	-90.574509
7546.875000	-90.936989
7570.312500	-91.122276
7593.750000	-91.833450
7617.187500	-91.931290
7640.625000	-91.846542
7664.062500	-92.027084
7687.500000	-92.650444
7710.937500	-93.105736
7734.375000	-93.981964
7757.812500	-94.245743
7781.250000	-95.045509
7804.687500	-96.340668
7828.125000	-97.103416
7851.562500	-97.715401
7875.000000	-98.689728
7898.437500	-99.891510
7921.875000	-100.685844
7945.312500	-100.986542
7968.750000	-101.435898
7992.187500	-101.986923
8015.625000	-101.728951
8039.062500	-100.980469
8062.500000	-99.807587
8085.937500	-99.771637
8109.375000	-99.574226
8132.812500	-99.001244
8156.250000	-98.678268
8179.687500	-98.165421
8203.125000	-98.150635
8226.562500	-97.304390
8250.000000	-96.188454
8273.437500	-95.747978
8296.875000	-95.601891
8320.312500	-95.827751
8343.750000	-95.355827
8367.187500	-94.969223
8390.625000	-95.019928
8414.062500	-94.352684
8437.500000	-94.063255
8460.937500	-93.613998
8484.375000	-93.695412
8507.812500	-93.899895
8531.250000	-93.790909
8554.687500	-94.644234
8578.125000	-95.001266
8601.562500	-95.462502
8625.000000	-96.766869
8648.437500	-98.274384
8671.875000	-100.178474
8695.312500	-103.279854
8718.750000	-106.895065
8742.187500	-107.767052
8765.625000	-104.616158
8789.062500	-102.318283
8812.500000	-100.630692
8835.937500	-99.005836
8859.375000	-98.322151
8882.812500	-98.024147
8906.250000	-97.544708
8929.687500	-97.559883
8953.125000	-97.447464
8976.562500	-97.531647
9000.000000	-97.951103
9023.437500	-98.919579
9046.875000	-99.762177
9070.312500	-100.781052
9093.750000	-101.925240
9117.187500	-102.529869
9140.625000	-102.426849
9164.062500	-101.178436
9187.500000	-101.274330
9210.937500	-100.790489
9234.375000	-99.761375
9257.812500	-98.289864
9281.250000	-97.071037
9304.687500	-96.223389
9328.125000	-95.072456
9351.562500	-94.013466
9375.000000	-93.334152
9398.437500	-92.652588
9421.875000	-92.238350
9445.312500	-92.041962
9468.750000	-91.524147
9492.187500	-91.034851
9515.625000	-90.507240
9539.062500	-90.028000
9562.500000	-89.624886
9585.937500	-89.333237
9609.375000	-88.471786
9632.812500	-88.128151
9656.250000	-87.786278
9679.687500	-87.697289
9703.125000	-88.373993
9726.562500	-88.862831
9750.000000	-89.309486
9773.437500	-89.730835
9796.875000	-90.138901
9820.312500	-90.606270
9843.750000	-91.542892
9867.187500	-92.890297
9890.625000	-94.609596
9914.062500	-96.107101
9937.500000	-93.447563
9960.937500	-94.804184
9984.375000	-99.233551
10007.812500	-100.025398
10031.250000	-96.662048
10054.687500	-95.428482
10078.125000	-98.719429
10101.562500	-98.720589
10125.000000	-97.650543
10148.437500	-96.545883
10171.875000	-96.537949
10195.312500	-96.808029
10218.750000	-96.547638
10242.187500	-96.488037
10265.625000	-95.885269
10289.062500	-95.491257
10312.500000	-94.995026
10335.937500	-94.853127
10359.375000	-94.462837
10382.812500	-94.562622
10406.250000	-94.801361
10429.687500	-94.354294
10453.125000	-94.599998
10476.562500	-95.151611
10500.000000	-95.783447
10523.437500	-96.831383
10546.875000	-97.660896
10570.312500	-98.545891
10593.750000	-98.902519
10617.187500	-98.247040
10640.625000	-97.214607
10664.062500	-96.500641
10687.500000	-95.908623
10710.937500	-94.566689
10734.375000	-93.557480
10757.812500	-93.071068
10781.250000	-92.271759
10804.687500	-91.927399
10828.125000	-91.437645
10851.562500	-90.737709
10875.000000	-90.543388
10898.437500	-90.235641
10921.875000	-90.256111
10945.312500	-90.470482
10968.750000	-91.021187
10992.187500	-91.240974
11015.625000	-91.062515
11039.062500	-91.703484
11062.500000	-92.278305
11085.937500	-92.845581
11109.375000	-93.431076
11132.812500	-93.412048
11156.250000	-92.644325
11179.687500	-91.800270
11203.125000	-90.517662
11226.562500	-88.585228
11250.000000	-87.612801
11273.437500	-86.839462
11296.875000	-85.543144
11320.312500	-84.710716
11343.750000	-83.899910
11367.187500	-83.377502
11390.625000	-82.921455
11414.062500	-82.831818
11437.500000	-82.823349
11460.937500	-82.801376
11484.375000	-82.815987
11507.812500	-82.826393
11531.250000	-82.779877
11554.687500	-82.579475
11578.125000	-82.972275
11601.562500	-82.952499
11625.000000	-82.943207
11648.437500	-82.987816
11671.875000	-83.093048
11695.312500	-83.238914
11718.750000	-83.765564
11742.187500	-84.210701
11765.625000	-84.330368
11789.062500	-84.846123
11812.500000	-84.834862
11835.937500	-84.965820
11859.375000	-84.700150
11882.812500	-84.770004
11906.250000	-84.366287
11929.687500	-84.022697
11953.125000	-83.828537
11976.562500	-83.283813
12000.000000	-82.721329
12023.437500	-82.149223
12046.875000	-81.419548
12070.312500	-81.317261
12093.750000	-81.155678
12117.187500	-80.974976
12140.625000	-81.345367
12164.062500	-81.389740
12187.500000	-81.523369
12210.937500	-81.929863
12234.375000	-82.322273
12257.812500	-83.150742
12281.250000	-83.788414
12304.687500	-84.880005
12328.125000	-85.514542
12351.562500	-86.584045
12375.000000	-87.601379
12398.437500	-88.512627
12421.875000	-89.090813
12445.312500	-89.815865
12468.750000	-90.431259
12492.187500	-91.210716
12515.625000	-92.677963
12539.062500	-94.904167
12562.500000	-96.573219
12585.937500	-99.192017
12609.375000	-104.010017
12632.812500	-104.159424
12656.250000	-99.388718
12679.687500	-95.337601
12703.125000	-92.405083
12726.562500	-90.510117
12750.000000	-88.623985
12773.437500	-87.370232
12796.875000	-86.625099
12820.312500	-85.779419
12843.750000	-85.220543
12867.187500	-84.912590
12890.625000	-84.518608
12914.062500	-84.254616
12937.500000	-84.231659
12960.937500	-83.725487
12984.375000	-83.491608
13007.812500	-83.176979
13031.250000	-82.849266
13054.687500	-82.167412
13078.125000	-81.828972
13101.562500	-81.967705
13125.000000	-82.039185
13148.437500	-81.945663
13171.875000	-82.293724
13195.312500	-82.494461
13218.750000	-82.620613
13242.187500	-83.009514
13265.625000	-83.428780
13289.062500	-84.240570
13312.500000	-85.166626
13335.937500	-85.962212
13359.375000	-86.497017
13382.812500	-87.190155
13406.250000	-87.691635
13429.687500	-88.092705
13453.125000	-88.428780
13476.562500	-89.120857
13500.000000	-89.107422
13523.437500	-89.511482
13546.875000	-90.305626
13570.312500	-90.116035
13593.750000	-90.426979
13617.187500	-91.256012
13640.625000	-91.954079
13664.062500	-92.599098
13687.500000	-93.266823
13710.937500	-93.820297
13734.375000	-94.098007
13757.812500	-94.240959
13781.250000	-94.911346
13804.687500	-95.560127
13828.125000	-95.432617
13851.562500	-95.348343
13875.000000	-94.792938
13898.437500	-94.627815
13921.875000	-94.443832
13945.312500	-93.699692
13968.750000	-92.950180
13992.187500	-92.845467
14015.625000	-92.155777
14039.062500	-91.606026
14062.500000	-91.306679
14085.937500	-91.214058
14109.375000	-91.094749
14132.812500	-90.812042
14156.250000	-90.326675
14179.687500	-89.818398
14203.125000	-89.697716
14226.562500	-89.234520
14250.000000	-88.689041
14273.437500	-88.740952
14296.875000	-89.262695
14320.312500	-89.311249
14343.750000	-89.116425
14367.187500	-89.135201
14390.625000	-89.026550
14414.062500	-89.553917
14437.500000	-89.735504
14460.937500	-89.601364
14484.375000	-89.841362
14507.812500	-90.393242
14531.250000	-90.538712
14554.687500	-90.072762
14578.125000	-90.181145
14601.562500	-90.872772
14625.000000	-91.188004
14648.437500	-91.529388
14671.875000	-91.823257
14695.312500	-91.830078
14718.750000	-92.099083
14742.187500	-92.406990
14765.625000	-92.721718
14789.062500	-93.383446
14812.500000	-93.697739
14835.937500	-94.177429
14859.375000	-94.333916
14882.812500	-94.725853
14906.250000	-95.830276
14929.687500	-96.505913
14953.125000	-97.152626
14976.562500	-97.503479
15000.000000	-98.039352
15023.437500	-98.914124
15046.875000	-99.235840
15070.312500	-98.636597
15093.750000	-99.654709
15117.187500	-100.811996
15140.625000	-101.419838
15164.062500	-100.909096
15187.500000	-101.118752
15210.937500	-102.606277
15234.375000	-102.805603
15257.812500	-102.162071
15281.250000	-101.815521
15304.687500	-103.606010
15328.125000	-103.670685
15351.562500	-103.098732
15375.000000	-101.309265
15398.437500	-103.190361
15421.875000	-103.829422
15445.312500	-104.021553
15468.750000	-102.970268
15492.187500	-102.960205
15515.625000	-102.495079
15539.062500	-101.341087
15562.500000	-100.009888
15585.937500	-99.126106
15609.375000	-98.917641
15632.812500	-98.031120
15656.250000	-97.360512
15679.687500	-96.379280
15703.125000	-96.101265
15726.562500	-95.718506
15750.000000	-95.136864
15773.437500	-95.049309
15796.875000	-94.901634
15820.312500	-94.867867
15843.750000	-94.321335
15867.187500	-93.745514
15890.625000	-94.073921
15914.062500	-94.747429
15937.500000	-94.352753
15960.937500	-93.869667
15984.375000	-94.150978
16007.812500	-94.599464
16031.250000	-94.805397
16054.687500	-94.834648
16078.125000	-94.883163
16101.562500	-95.883156
16125.000000	-96.186287
16148.437500	-96.672836
16171.875000	-96.261314
16195.312500	-97.041451
16218.750000	-97.956696
16242.187500	-98.322731
16265.625000	-98.298134
16289.062500	-98.558891
16312.500000	-99.546333
16335.937500	-100.429382
16359.375000	-99.958755
16382.812500	-99.426697
16406.250000	-100.758545
16429.687500	-101.557938
16453.125000	-101.653732
16476.562500	-100.074905
16500.000000	-101.255112
16523.437500	-101.570137
16546.875000	-101.621315
16570.312500	-100.037788
16593.750000	-100.152397
16617.187500	-100.406921
16640.625000	-100.339745
16664.062500	-98.824814
16687.500000	-98.369713
16710.937500	-99.175636
16734.375000	-98.983559
16757.812500	-98.858650
16781.250000	-98.158470
16804.687500	-98.774490
16828.125000	-98.801651
16851.562500	-98.312714
16875.000000	-96.761673
16898.437500	-97.830162
16921.875000	-98.819832
16945.312500	-98.576469
16968.750000	-97.724739
16992.187500	-98.251709
17015.625000	-98.968811
17039.062500	-99.057861
17062.500000	-99.043549
17085.937500	-99.038376
17109.375000	-99.474686
17132.812500	-99.378647
17156.250000	-99.190910
17179.687500	-98.128891
17203.125000	-99.220810
17226.562500	-99.219612
17250.000000	-99.603516
17273.437500	-98.647087
17296.875000	-99.145012
17320.312500	-99.592201
17343.750000	-99.515213
17367.187500	-97.384789
17390.625000	-97.429779
17414.062500	-99.529366
17437.500000	-99.355133
17460.937500	-97.935677
17484.375000	-97.054977
17507.812500	-98.781143
17531.250000	-98.825005
17554.687500	-98.011887
17578.125000	-96.522392
17601.562500	-96.972290
17625.000000	-96.815948
17648.437500	-96.648094
17671.875000	-95.357620
17695.312500	-95.698792
17718.750000	-96.516914
17742.187500	-96.661926
17765.625000	-96.556877
17789.062500	-96.394997
17812.500000	-96.688736
17835.937500	-96.812294
17859.375000	-96.861168
17882.812500	-96.483498
17906.250000	-97.077881
17929.687500	-96.948357
17953.125000	-96.411690
17976.562500	-91.340965
18000.000000	-92.423241
18023.437500	-97.291420
18046.875000	-97.610901
18070.312500	-96.871796
18093.750000	-96.857590
18117.187500	-97.806328
18140.625000	-97.812424
18164.062500	-96.628082
18187.500000	-95.819191
18210.937500	-97.510338
18234.375000	-97.431969
18257.812500	-96.741394
18281.250000	-95.284790
18304.687500	-96.994225
18328.125000	-97.444557
18351.562500	-97.170097
18375.000000	-95.968117
18398.437500	-96.597282
18421.875000	-97.461182
18445.312500	-97.181290
18468.750000	-95.617447
18492.187500	-95.607246
18515.625000	-97.173157
18539.062500	-97.136360
18562.500000	-96.628761
18585.937500	-95.994743
18609.375000	-96.981071
18632.812500	-96.735786
18656.250000	-96.859093
18679.687500	-95.622620
18703.125000	-96.666718
18726.562500	-96.601181
18750.000000	-96.645782
18773.437500	-95.526939
18796.875000	-95.970367
18820.312500	-96.790939
18843.750000	-96.606224
18867.187500	-96.378197
18890.625000	-96.141624
18914.062500	-96.806770
18937.500000	-96.867348
18960.937500	-96.183342
18984.375000	-94.883530
19007.812500	-96.389450
19031.250000	-96.721581
19054.687500	-96.986656
19078.125000	-95.673752
19101.562500	-96.397064
19125.000000	-96.975327
19148.437500	-97.049179
19171.875000	-95.590492
19195.312500	-95.874123
19218.750000	-97.139809
19242.187500	-96.869415
19265.625000	-95.937218
19289.062500	-95.338440
19312.500000	-96.752998
19335.937500	-96.770065
19359.375000	-96.993446
19382.812500	-95.990288
19406.250000	-96.743622
19429.687500	-96.786118
19453.125000	-96.924347
19476.562500	-95.100548
19500.000000	-96.008568
19523.437500	-96.794319
19546.875000	-96.816750
19570.312500	-95.890129
19593.750000	-95.932114
19617.187500	-97.186523
19640.625000	-96.762169
19664.062500	-96.530220
19687.500000	-95.928101
19710.937500	-96.825401
19734.375000	-96.677216
19757.812500	-97.033463
19781.250000	-96.408478
19804.687500	-96.870270
19828.125000	-96.974411
19851.562500	-97.286438
19875.000000	-96.717491
19898.437500	-96.731033
19921.875000	-97.164062
19945.312500	-97.180046
19968.750000	-96.414909
19992.187500	-96.046028
20015.625000	-97.607994
20039.062500	-97.695732
20062.500000	-97.893669
20085.937500	-97.240707
20109.375000	-98.243713
20132.812500	-98.328461
20156.250000	-98.381531
20179.687500	-98.260071
20203.125000	-98.561867
20226.562500	-98.671562
20250.000000	-98.627594
20273.437500	-98.610741
20296.875000	-98.605392
20320.312500	-99.293121
20343.750000	-99.294533
20367.187500	-99.554649
20390.625000	-99.313766
20414.062500	-99.876839
20437.500000	-99.915710
20460.937500	-99.813690
20484.375000	-99.034111
20507.812500	-99.921394
20531.250000	-100.467987
20554.687500	-100.443176
20578.125000	-100.321770
20601.562500	-100.718246
20625.000000	-101.088387
20648.437500	-101.016144
20671.875000	-100.376434
20695.312500	-100.374664
20718.750000	-101.462074
20742.187500	-101.209991
20765.625000	-101.438789
20789.062500	-101.035782
20812.500000	-101.525276
20835.937500	-101.516411
20859.375000	-101.725601
20882.812500	-101.651413
20906.250000	-101.939468
20929.687500	-101.920135
20953.125000	-101.944344
20976.562500	-102.291534
21000.000000	-102.198944
21023.437500	-102.119720
21046.875000	-102.303963
21070.312500	-102.473068
21093.750000	-102.489967
21117.187500	-102.566383
21140.625000	-102.507996
21164.062500	-102.535728
21187.500000	-101.443291
21210.937500	-102.362953
21234.375000	-102.914566
21257.812500	-103.093971
21281.250000	-102.761513
21304.687500	-102.804352
21328.125000	-102.920845
21351.562500	-103.174698
21375.000000	-103.254616
21398.437500	-103.162163
21421.875000	-103.082809
21445.312500	-103.311981
21468.750000	-103.333130
21492.187500	-102.913353
21515.625000	-103.402245
21539.062500	-103.696579
21562.500000	-103.693039
21585.937500	-103.281372
21609.375000	-103.766205
21632.812500	-103.863876
21656.250000	-103.820557
21679.687500	-103.653267
21703.125000	-103.813126
21726.562500	-103.970612
21750.000000	-103.991432
21773.437500	-103.824654
21796.875000	-103.696388
21820.312500	-103.763145
21843.750000	-104.050041
21867.187500	-103.874886
21890.625000	-103.852234
21914.062500	-104.030540
21937.500000	-104.235825
21960.937500	-104.074875
21984.375000	-103.968407
22007.812500	-104.097595
22031.250000	-104.372192
22054.687500	-104.074135
22078.125000	-103.727715
22101.562500	-104.111259
22125.000000	-104.409103
22148.437500	-104.561203
22171.875000	-104.380547
22195.312500	-104.356743
22218.750000	-104.667374
22242.187500	-104.635414
22265.625000	-104.709114
22289.062500	-104.756058
22312.500000	-104.700226
22335.937500	-104.669548
22359.375000	-104.737869
22382.812500	-104.441116
22406.250000	-104.485336
22429.687500	-104.441719
22453.125000	-104.551491
22476.562500	-104.660835
22500.000000	-104.706673
22523.437500	-104.571510
22546.875000	-104.979294
22570.312500	-104.391632
22593.750000	-103.410133
22617.187500	-104.716904
22640.625000	-105.321350
22664.062500	-105.285248
22687.500000	-104.520256
22710.937500	-105.054642
22734.375000	-105.552979
22757.812500	-105.165359
22781.250000	-104.652649
22804.687500	-104.816872
22828.125000	-105.172310
22851.562500	-105.259789
22875.000000	-105.059898
22898.437500	-104.902039
22921.875000	-105.104263
22945.312500	-105.024872
22968.750000	-105.285889
22992.187500	-104.772285
23015.625000	-105.162086
23039.062500	-105.263405
23062.500000	-105.711403
23085.937500	-105.424431
23109.375000	-105.380074
23132.812500	-105.780037
23156.250000	-105.923485
23179.687500	-105.397423
23203.125000	-105.375359
23226.562500	-105.889214
23250.000000	-105.805481
23273.437500	-105.772285
23296.875000	-105.472794
23320.312500	-105.749420
23343.750000	-105.918945
23367.187500	-105.830086
23390.625000	-105.674339
23414.062500	-105.866127
23437.500000	-105.568245
23460.937500	-105.734245
23484.375000	-105.625877
23507.812500	-105.632713
23531.250000	-105.775818
23554.687500	-105.622017
23578.125000	-105.773552
23601.562500	-105.669655
23625.000000	-105.726982
23648.437500	-105.730927
23671.875000	-105.824532
23695.312500	-105.945221
23718.750000	-106.239395
23742.187500	-106.011086
23765.625000	-106.100525
23789.062500	-105.943626
23812.500000	-105.933685
23835.937500	-105.910027
23859.375000	-105.869141
23882.812500	-105.687698
23906.250000	-105.480522
23929.687500	-105.822388
23953.125000	-106.022812
23976.562500	-105.846916
