Frequency (Hz)	Level (dB)
23.437500	-52.321480
46.875000	-44.521027
70.312500	-48.838387
93.750000	-65.464668
117.187500	-68.553337
140.625000	-76.539024
164.062500	-78.022781
187.500000	-78.210884
210.937500	-77.810814
234.375000	-80.807053
257.812500	-77.452087
281.250000	-74.802666
304.687500	-72.476067
328.125000	-72.943893
351.562500	-68.731560
375.000000	-75.229843
398.437500	-79.072731
421.875000	-79.863800
445.312500	-73.122787
468.750000	-76.456779
492.187500	-85.417152
515.625000	-85.655212
539.062500	-81.824265
562.500000	-83.061943
585.937500	-86.971298
609.375000	-85.558105
632.812500	-73.005554
656.250000	-70.287743
679.687500	-79.810448
703.125000	-89.111572
726.562500	-82.496796
750.000000	-76.660789
773.437500	-82.225685
796.875000	-85.452492
820.312500	-88.211487
843.750000	-84.486855
867.187500	-87.030609
890.625000	-93.623711
914.062500	-86.569527
937.500000	-74.517395
960.937500	-74.103973
984.375000	-84.680237
1007.812500	-89.322083
1031.250000	-92.669670
1054.687500	-90.801224
1078.125000	-96.238731
1101.562500	-95.608917
1125.000000	-92.413406
1148.437500	-86.429337
1171.875000	-91.134506
1195.312500	-99.185631
1218.750000	-95.422066
1242.187500	-85.762383
1265.625000	-87.554733
1289.062500	-95.186905
1312.500000	-95.579178
1335.937500	-92.729919
1359.375000	-91.668999
1382.812500	-96.861053
1406.250000	-96.511482
1429.687500	-94.075874
1453.125000	-90.132614
1476.562500	-88.485939
1500.000000	-85.035172
1523.437500	-85.740761
1546.875000	-87.693001
1570.312500	-91.727638
1593.750000	-93.692909
1617.187500	-95.104530
1640.625000	-91.816742
1664.062500	-92.905022
1687.500000	-95.791740
1710.937500	-95.421188
1734.375000	-89.959953
1757.812500	-88.143051
1781.250000	-95.568993
1804.687500	-96.023193
1828.125000	-98.608887
1851.562500	-98.552597
1875.000000	-99.338295
1898.437500	-98.006157
1921.875000	-97.383392
1945.312500	-94.680130
1968.750000	-94.476128
1992.187500	-94.909782
2015.625000	-91.289406
2039.062500	-84.069023
2062.500000	-82.151176
2085.937500	-80.923347
2109.375000	-78.722748
2132.812500	-78.575714
2156.250000	-81.764145
2179.687500	-85.352478
2203.125000	-87.671173
2226.562500	-90.060677
2250.000000	-90.949188
2273.437500	-92.096939
2296.875000	-92.856949
2320.312500	-94.191208
2343.750000	-91.987038
2367.187500	-92.075592
2390.625000	-91.382271
2414.062500	-90.279625
2437.500000	-90.378433
2460.937500	-90.916641
2484.375000	-90.868431
2507.812500	-89.914665
2531.250000	-89.043800
2554.687500	-88.172874
2578.125000	-87.496994
2601.562500	-88.635025
2625.000000	-91.668015
2648.437500	-91.916695
2671.875000	-91.633545
2695.312500	-92.466988
2718.750000	-93.325562
2742.187500	-93.776611
2765.625000	-93.786308
2789.062500	-93.045464
2812.500000	-93.169365
2835.937500	-93.614738
2859.375000	-93.498611
2882.812500	-92.991615
2906.250000	-92.347427
2929.687500	-92.586563
2953.125000	-92.774590
2976.562500	-92.996948
3000.000000	-92.559624
3023.437500	-91.470825
3046.875000	-89.097183
3070.312500	-87.681839
3093.750000	-85.960335
3117.187500	-83.812157
3140.625000	-82.056038
3164.062500	-81.140816
3187.500000	-81.940361
3210.937500	-83.345955
3234.375000	-84.482910
3257.812500	-85.618874
3281.250000	-86.056839
3304.687500	-86.028305
3328.125000	-85.662498
3351.562500	-85.139091
3375.000000	-85.056213
3398.437500	-86.053581
3421.875000	-88.126785
3445.312500	-89.796097
3468.750000	-92.083076
3492.187500	-95.684616
3515.625000	-98.954575
3539.062500	-99.468361
3562.500000	-100.082283
3585.937500	-101.130890
3609.375000	-101.564293
3632.812500	-103.155907
3656.250000	-103.815498
3679.687500	-105.004578
3703.125000	-106.779785
3726.562500	-105.436958
3750.000000	-101.309608
3773.437500	-103.480446
3796.875000	-103.366264
3820.312500	-105.673645
3843.750000	-102.664558
3867.187500	-104.042328
3890.625000	-106.052559
3914.062500	-106.091156
3937.500000	-105.449951
3960.937500	-103.125717
3984.375000	-100.160873
4007.812500	-96.692253
4031.250000	-93.767662
4054.687500	-90.808052
4078.125000	-88.961273
4101.562500	-88.317123
4125.000000	-87.675636
4148.437500	-87.304207
4171.875000	-87.195450
4195.312500	-87.167870
4218.750000	-86.940384
4242.187500	-86.355537
4265.625000	-86.548508
4289.062500	-86.875061
4312.500000	-86.539764
4335.937500	-85.862335
4359.375000	-85.516121
4382.812500	-85.525688
4406.250000	-86.118355
4429.687500	-87.437393
4453.125000	-88.788048
4476.562500	-90.072960
4500.000000	-91.037376
4523.437500	-92.518776
4546.875000	-92.975525
4570.312500	-93.070206
4593.750000	-93.728317
4617.187500	-94.242012
4640.625000	-94.781143
4664.062500	-95.308708
4687.500000	-95.869781
4710.937500	-96.274155
4734.375000	-96.790665
4757.812500	-97.455261
4781.250000	-98.059113
4804.687500	-97.627541
4828.125000	-97.062157
4851.562500	-95.373047
4875.000000	-93.858528
4898.437500	-92.065094
4921.875000	-89.920547
4945.312500	-88.448631
4968.750000	-87.588623
4992.187500	-86.342278
5015.625000	-84.931702
5039.062500	-84.427376
5062.500000	-84.882904
5085.937500	-85.332481
5109.375000	-85.634827
5132.812500	-85.281349
5156.250000	-85.147278
5179.687500	-86.019951
5203.125000	-87.651115
5226.562500	-87.965515
5250.000000	-87.011551
5273.437500	-86.349533
5296.875000	-85.504784
5320.312500	-84.677750
5343.750000	-84.427444
5367.187500	-85.617157
5390.625000	-86.175102
5414.062500	-84.158493
5437.500000	-82.121689
5460.937500	-81.255127
5484.375000	-81.805420
5507.812500	-82.392555
5531.250000	-82.511551
5554.687500	-82.238937
5578.125000	-82.148460
5601.562500	-81.482208
5625.000000	-80.872711
5648.437500	-82.090698
5671.875000	-86.555328
5695.312500	-85.296974
5718.750000	-79.111801
5742.187500	-75.433739
5765.625000	-72.982971
5789.062500	-71.221359
5812.500000	-70.396416
5835.937500	-69.632042
5859.375000	-69.478699
5882.812500	-69.361824
5906.250000	-69.683029
5929.687500	-70.087883
5953.125000	-70.803238
5976.562500	-72.046349
6000.000000	-73.908325
6023.437500	-75.836700
6046.875000	-77.154068
6070.312500	-77.336403
6093.750000	-76.564941
6117.187500	-75.933975
6140.625000	-75.937096
6164.062500	-76.186249
6187.500000	-76.000565
6210.937500	-75.716179
6234.375000	-75.966003
6257.812500	-76.090721
6281.250000	-75.995689
6304.687500	-76.313065
6328.125000	-76.054222
6351.562500	-75.497566
6375.000000	-75.247513
6398.437500	-74.755486
6421.875000	-74.382378
6445.312500	-73.603996
6468.750000	-73.281296
6492.187500	-72.847183
6515.625000	-72.581627
6539.062500	-72.858971
6562.500000	-73.223442
6585.937500	-73.649696
6609.375000	-74.392273
6632.812500	-75.518013
6656.250000	-76.953247
6679.687500	-78.068954
6703.125000	-78.648445
6726.562500	-79.994629
6750.000000	-81.291466
6773.437500	-80.966866
6796.875000	-79.788383
6820.312500	-78.420723
6843.750000	-77.627594
6867.187500	-76.725067
6890.625000	-76.437027
6914.062500	-76.346130
6937.500000	-76.075020
6960.937500	-76.418518
6984.375000	-77.317207
7007.812500	-78.390076
7031.250000	-79.141708
7054.687500	-79.899918
7078.125000	-80.570946
7101.562500	-81.059982
7125.000000	-82.292511
7148.437500	-84.467484
7171.875000	-87.075447
7195.312500	-89.320709
7218.750000	-91.052124
7242.187500	-92.040741
7265.625000	-91.836693
7289.062500	-91.262314
7312.500000	-90.922310
7335.937500	-90.983337
7359.375000	-91.070389
7382.812500	-91.029808
7406.250000	-90.748383
7429.687500	-90.400841
7453.125000	-90.291237
7476.562500	-90.612534
7500.000000	-90.937424
7523.437500	-91.419464
7546.875000	-91.609848
7570.312500	-91.502625
7593.750000	-92.158417
7617.187500	-92.211853
7640.625000	-93.128860
7664.062500	-94.049728
7687.500000	-95.320801
7710.937500	-96.925919
7734.375000	-98.520638
7757.812500	-99.619698
7781.250000	-100.505531
7804.687500	-100.662727
7828.125000	-98.219345
7851.562500	-96.006866
7875.000000	-94.206451
7898.437500	-92.369759
7921.875000	-91.120499
7945.312500	-89.925636
7968.750000	-89.386719
7992.187500	-89.042732
8015.625000	-89.013428
8039.062500	-88.667915
8062.500000	-88.144302
8085.937500	-87.455452
8109.375000	-87.559372
8132.812500	-87.178215
8156.250000	-87.275955
8179.687500	-87.223083
8203.125000	-87.575752
8226.562500	-87.439941
8250.000000	-87.537262
8273.437500	-87.571098
8296.875000	-87.617416
8320.312500	-87.865166
8343.750000	-87.789375
8367.187500	-87.506866
8390.625000	-87.222527
8414.062500	-86.942154
8437.500000	-87.489220
8460.937500	-87.705521
8484.375000	-88.352882
8507.812500	-89.343628
8531.250000	-90.196564
8554.687500	-92.190987
8578.125000	-93.476959
8601.562500	-94.300529
8625.000000	-95.320526
8648.437500	-96.321213
8671.875000	-96.967987
8695.312500	-98.010063
8718.750000	-99.475990
8742.187500	-101.307938
8765.625000	-103.575813
8789.062500	-106.411621
8812.500000	-109.106964
8835.937500	-110.662788
8859.375000	-110.486855
8882.812500	-109.678658
8906.250000	-108.026413
8929.687500	-105.172142
8953.125000	-102.287331
8976.562500	-101.630569
9000.000000	-99.584618
9023.437500	-98.188370
9046.875000	-96.517136
9070.312500	-95.274498
9093.750000	-94.496552
9117.187500	-93.292908
9140.625000	-92.494728
9164.062500	-92.182625
9187.500000	-91.748077
9210.937500	-91.824440
9234.375000	-92.038124
9257.812500	-91.902817
9281.250000	-91.677605
9304.687500	-91.556610
9328.125000	-91.442169
9351.562500	-90.987724
9375.000000	-90.799454
9398.437500	-90.648064
9421.875000	-90.975700
9445.312500	-91.774696
9468.750000	-92.403435
9492.187500	-93.338699
9515.625000	-94.030739
9539.062500	-94.637604
9562.500000	-95.636497
9585.937500	-97.895004
9609.375000	-100.116623
9632.812500	-102.838371
9656.250000	-103.981201
9679.687500	-103.197250
9703.125000	-99.867310
9726.562500	-97.436371
9750.000000	-95.955498
9773.437500	-95.152618
9796.875000	-93.618248
9820.312500	-92.479866
9843.750000	-92.229004
9867.187500	-92.143448
9890.625000	-91.645943
9914.062500	-91.172356
9937.500000	-90.384918
9960.937500	-89.995781
9984.375000	-89.706444
10007.812500	-88.884521
10031.250000	-88.362839
10054.687500	-87.805237
10078.125000	-87.747719
10101.562500	-87.937981
10125.000000	-87.184570
10148.437500	-86.674690
10171.875000	-86.445526
10195.312500	-85.755730
10218.750000	-85.235268
10242.187500	-84.959602
10265.625000	-84.396637
10289.062500	-84.159142
10312.500000	-83.852493
10335.937500	-84.305359
10359.375000	-84.805740
10382.812500	-85.581894
10406.250000	-86.246429
10429.687500	-87.184387
10453.125000	-88.632866
10476.562500	-91.052917
10500.000000	-94.198936
10523.437500	-99.793571
10546.875000	-101.276802
10570.312500	-95.183235
10593.750000	-90.891769
10617.187500	-88.026367
10640.625000	-85.869583
10664.062500	-84.549507
10687.500000	-83.158142
10710.937500	-82.106354
10734.375000	-81.213196
10757.812500	-81.097694
10781.250000	-80.874985
10804.687500	-80.664917
10828.125000	-80.688782
10851.562500	-80.211243
10875.000000	-80.598473
10898.437500	-80.755417
10921.875000	-80.906876
10945.312500	-81.408211
10968.750000	-82.341949
10992.187500	-83.076088
11015.625000	-83.339546
11039.062500	-84.152054
11062.500000	-85.699463
11085.937500	-86.797890
11109.375000	-87.480125
11132.812500	-87.007538
11156.250000	-86.663033
11179.687500	-86.087494
11203.125000	-85.622604
11226.562500	-84.781090
11250.000000	-84.748428
11273.437500	-84.732040
11296.875000	-84.754066
11320.312500	-84.944946
11343.750000	-84.622665
11367.187500	-84.487968
11390.625000	-84.521912
11414.062500	-84.818260
11437.500000	-85.071846
11460.937500	-84.771339
11484.375000	-84.338318
11507.812500	-83.847382
11531.250000	-83.153450
11554.687500	-82.255753
11578.125000	-82.163528
11601.562500	-81.812981
11625.000000	-81.330368
11648.437500	-81.129890
11671.875000	-80.948685
11695.312500	-80.936203
11718.750000	-81.145714
11742.187500	-81.417671
11765.625000	-81.462677
11789.062500	-82.005211
11812.500000	-82.259018
11835.937500	-82.527290
11859.375000	-82.812622
11882.812500	-83.707970
11906.250000	-84.280518
11929.687500	-84.875786
11953.125000	-85.502426
11976.562500	-86.540283
12000.000000	-87.879997
12023.437500	-88.991226
12046.875000	-90.178017
12070.312500	-91.891235
12093.750000	-92.695702
12117.187500	-91.895058
12140.625000	-92.113098
12164.062500	-91.848671
12187.500000	-91.103287
12210.937500	-90.181801
12234.375000	-89.270271
12257.812500	-88.477921
12281.250000	-88.083199
12304.687500	-87.520416
12328.125000	-86.965256
12351.562500	-86.463089
12375.000000	-86.307030
12398.437500	-85.852287
12421.875000	-85.388977
12445.312500	-85.223503
12468.750000	-84.906166
12492.187500	-84.586411
12515.625000	-85.027611
12539.062500	-85.782684
12562.500000	-85.871338
12585.937500	-85.739128
12609.375000	-85.579704
12632.812500	-85.357491
12656.250000	-85.008217
12679.687500	-84.370071
12703.125000	-84.042961
12726.562500	-84.310585
12750.000000	-84.426720
12773.437500	-84.699203
12796.875000	-85.137573
12820.312500	-85.494873
12843.750000	-86.265526
12867.187500	-86.859619
12890.625000	-87.407234
12914.062500	-87.985298
12937.500000	-88.703827
12960.937500	-89.511658
12984.375000	-89.976173
13007.812500	-90.536621
13031.250000	-91.050079
13054.687500	-90.901848
13078.125000	-91.240677
13101.562500	-91.723846
13125.000000	-91.903175
13148.437500	-91.900398
13171.875000	-92.054146
13195.312500	-92.059074
13218.750000	-91.963547
13242.187500	-91.844429
13265.625000	-92.041389
13289.062500	-92.520164
13312.500000	-92.965210
13335.937500	-93.322701
13359.375000	-93.738785
13382.812500	-94.216431
13406.250000	-94.547493
13429.687500	-95.135422
13453.125000	-95.631813
13476.562500	-96.604904
13500.000000	-97.131081
13523.437500	-97.979469
13546.875000	-98.783463
13570.312500	-99.983635
13593.750000	-101.157661
13617.187500	-102.162537
13640.625000	-103.201492
13664.062500	-103.939369
13687.500000	-105.731430
13710.937500	-107.618179
13734.375000	-109.620514
13757.812500	-110.150047
13781.250000	-111.578629
13804.687500	-111.407776
13828.125000	-108.810402
13851.562500	-105.156548
13875.000000	-107.960716
13898.437500	-107.678879
13921.875000	-107.584602
13945.312500	-106.722237
13968.750000	-107.226608
13992.187500	-107.405174
14015.625000	-107.679276
14039.062500	-107.369904
14062.500000	-107.439934
14085.937500	-107.819107
14109.375000	-107.928833
14132.812500	-107.493896
14156.250000	-106.519745
14179.687500	-109.304939
14203.125000	-109.028313
14226.562500	-108.945084
14250.000000	-107.905434
14273.437500	-109.294823
14296.875000	-109.631264
14320.312500	-109.634102
14343.750000	-107.404480
14367.187500	-108.128090
14390.625000	-109.208076
14414.062500	-109.498856
14437.500000	-108.514977
14460.937500	-107.740440
14484.375000	-109.129890
14507.812500	-109.853722
14531.250000	-109.735939
14554.687500	-108.958267
14578.125000	-110.669777
14601.562500	-110.406479
14625.000000	-109.944092
14648.437500	-106.538383
14671.875000	-108.336037
14695.312500	-109.444672
14718.750000	-109.451111
14742.187500	-108.455299
14765.625000	-109.265434
14789.062500	-109.784935
14812.500000	-109.837509
14835.937500	-107.023659
14859.375000	-105.793190
14882.812500	-109.590469
14906.250000	-110.153610
14929.687500	-109.453819
14953.125000	-107.434540
14976.562500	-109.301674
15000.000000	-108.629967
15023.437500	-110.160484
15046.875000	-109.694420
15070.312500	-110.271782
15093.750000	-109.850052
15117.187500	-109.528320
15140.625000	-105.437019
15164.062500	-105.660896
15187.500000	-108.548874
15210.937500	-108.727036
15234.375000	-108.793541
15257.812500	-107.951088
15281.250000	-108.523125
15304.687500	-107.734978
15328.125000	-107.727509
15351.562500	-106.527000
15375.000000	-107.404892
15398.437500	-107.581909
15421.875000	-107.781517
15445.312500	-106.204796
15468.750000	-106.067223
15492.187500	-105.946892
15515.625000	-106.230316
15539.062500	-106.387596
15562.500000	-106.115166
15585.937500	-105.736908
15609.375000	-105.047256
15632.812500	-104.207199
15656.250000	-103.146622
15679.687500	-104.693291
15703.125000	-104.820808
15726.562500	-104.369583
15750.000000	-102.904251
15773.437500	-103.948814
15796.875000	-104.494560
15820.312500	-104.944580
15843.750000	-104.187340
15867.187500	-104.513351
15890.625000	-104.936150
15914.062500	-105.149399
15937.500000	-103.928314
15960.937500	-103.978363
15984.375000	-105.827957
16007.812500	-105.877029
16031.250000	-105.821991
16054.687500	-105.278954
16078.125000	-106.358253
16101.562500	-106.717575
16125.000000	-106.309494
16148.437500	-103.513687
16171.875000	-105.197273
16195.312500	-106.862854
16218.750000	-106.845299
16242.187500	-104.988594
16265.625000	-105.662918
16289.062500	-106.632225
16312.500000	-106.673615
16335.937500	-106.466980
16359.375000	-106.269844
16382.812500	-106.579597
16406.250000	-106.028786
16429.687500	-105.609306
16453.125000	-103.506027
16476.562500	-105.510757
16500.000000	-105.667114
16523.437500	-106.122421
16546.875000	-104.839745
16570.312500	-105.840866
16593.750000	-106.496590
16617.187500	-106.166382
16640.625000	-102.858696
16664.062500	-103.151665
16687.500000	-105.879646
16710.937500	-105.774910
16734.375000	-105.184410
16757.812500	-104.649170
16781.250000	-106.118706
16804.687500	-105.733276
16828.125000	-105.903641
16851.562500	-105.143707
16875.000000	-105.504112
16898.437500	-105.271667
16921.875000	-105.481339
16945.312500	-102.857819
16968.750000	-103.655365
16992.187500	-104.781235
17015.625000	-104.914543
17039.062500	-104.076485
17062.500000	-104.047432
17085.937500	-104.763481
17109.375000	-104.683533
17132.812500	-104.211670
17156.250000	-103.211288
17179.687500	-104.535645
17203.125000	-104.509171
17226.562500	-104.296501
17250.000000	-102.388664
17273.437500	-104.059418
17296.875000	-103.831512
17320.312500	-104.294914
17343.750000	-103.414108
17367.187500	-103.341888
17390.625000	-103.749519
17414.062500	-104.219604
17437.500000	-101.679367
17460.937500	-100.903252
17484.375000	-103.406494
17507.812500	-103.741432
17531.250000	-102.948738
17554.687500	-101.424873
17578.125000	-102.810066
17601.562500	-103.411469
17625.000000	-103.444756
17648.437500	-101.928963
17671.875000	-102.710983
17695.312500	-102.886276
17718.750000	-103.313446
17742.187500	-101.602142
17765.625000	-101.740448
17789.062500	-102.020592
17812.500000	-102.358627
17835.937500	-102.564629
17859.375000	-102.206444
17882.812500	-102.787071
17906.250000	-102.406082
17929.687500	-101.083496
17953.125000	-98.920906
17976.562500	-93.385056
18000.000000	-94.262604
18023.437500	-100.605347
18046.875000	-99.277008
18070.312500	-100.994133
18093.750000	-102.204803
18117.187500	-102.077278
18140.625000	-101.047272
18164.062500	-101.189590
18187.500000	-101.436745
18210.937500	-101.550758
18234.375000	-99.880547
18257.812500	-98.792892
18281.250000	-101.292534
18304.687500	-101.701317
18328.125000	-101.698204
18351.562500	-100.742203
18375.000000	-101.386459
18398.437500	-101.359093
18421.875000	-101.181068
18445.312500	-98.727020
18468.750000	-99.758682
18492.187500	-100.978233
18515.625000	-101.068192
18539.062500	-99.587532
18562.500000	-99.542877
18585.937500	-100.437096
18609.375000	-100.571426
18632.812500	-100.562523
18656.250000	-100.148460
18679.687500	-100.557304
18703.125000	-100.200989
18726.562500	-100.159348
18750.000000	-98.016747
18773.437500	-99.802170
18796.875000	-100.137306
18820.312500	-100.508469
18843.750000	-98.805328
18867.187500	-99.417961
18890.625000	-100.707138
18914.062500	-100.787338
18937.500000	-99.439163
18960.937500	-98.962044
18984.375000	-100.726166
19007.812500	-100.756805
19031.250000	-100.038628
19054.687500	-98.294266
19078.125000	-100.294357
19101.562500	-100.302208
19125.000000	-100.778992
19148.437500	-99.352303
19171.875000	-100.218681
19195.312500	-100.600731
19218.750000	-100.534386
19242.187500	-98.637871
19265.625000	-98.816261
19289.062500	-99.880661
19312.500000	-99.588966
19335.937500	-97.997200
19359.375000	-97.079269
19382.812500	-99.849442
19406.250000	-99.665085
19429.687500	-99.825119
19453.125000	-98.826431
19476.562500	-100.054428
19500.000000	-99.676025
19523.437500	-99.531700
19546.875000	-97.884071
19570.312500	-98.867271
19593.750000	-99.091408
19617.187500	-99.209579
19640.625000	-98.389473
19664.062500	-98.721527
19687.500000	-100.010384
19710.937500	-99.535408
19734.375000	-98.672882
19757.812500	-97.893814
19781.250000	-99.452240
19804.687500	-98.817284
19828.125000	-98.794304
19851.562500	-96.745415
19875.000000	-98.865150
19898.437500	-99.500763
19921.875000	-99.982635
19945.312500	-99.387878
19968.750000	-99.840195
19992.187500	-99.447823
20015.625000	-99.466095
20039.062500	-97.962494
20062.500000	-97.753883
20085.937500	-99.548447
20109.375000	-99.211411
20132.812500	-99.737610
20156.250000	-99.225922
20179.687500	-100.429901
20203.125000	-99.805969
20226.562500	-100.071739
20250.000000	-99.048882
20273.437500	-99.855713
20296.875000	-99.131844
20320.312500	-100.104980
20343.750000	-99.569885
20367.187500	-100.252579
20390.625000	-100.823250
20414.062500	-100.988113
20437.500000	-100.466736
20460.937500	-100.318565
20484.375000	-101.558632
20507.812500	-100.981102
20531.250000	-100.759659
20554.687500	-99.345451
20578.125000	-101.275002
20601.562500	-101.516953
20625.000000	-102.348564
20648.437500	-102.330559
20671.875000	-102.846619
20695.312500	-102.789703
20718.750000	-102.925064
20742.187500	-102.840714
20765.625000	-102.890442
20789.062500	-102.444633
20812.500000	-102.582321
20835.937500	-103.370399
20859.375000	-103.260101
20882.812500	-103.713509
20906.250000	-103.477196
20929.687500	-104.517349
20953.125000	-103.966263
20976.562500	-104.129677
21000.000000	-103.334915
21023.437500	-104.086411
21046.875000	-103.477921
21070.312500	-104.140564
21093.750000	-103.703789
21117.187500	-104.224213
21140.625000	-104.652901
21164.062500	-104.970428
21187.500000	-104.859070
21210.937500	-104.608795
21234.375000	-105.190765
21257.812500	-105.021584
21281.250000	-105.231583
21304.687500	-104.530785
21328.125000	-105.091270
21351.562500	-104.489838
21375.000000	-105.448486
21398.437500	-105.106171
21421.875000	-106.179352
21445.312500	-106.485886
21468.750000	-106.465805
21492.187500	-106.011780
21515.625000	-106.369873
21539.062500	-106.060204
21562.500000	-105.643517
21585.937500	-106.129204
21609.375000	-106.206474
21632.812500	-106.873543
21656.250000	-106.547218
21679.687500	-107.066658
21703.125000	-106.860474
21726.562500	-107.145401
21750.000000	-105.806450
21773.437500	-106.985619
21796.875000	-107.338593
21820.312500	-107.605240
21843.750000	-106.646248
21867.187500	-107.058220
21890.625000	-107.877411
21914.062500	-107.957024
21937.500000	-107.779411
21960.937500	-107.710732
21984.375000	-107.914078
22007.812500	-107.643486
22031.250000	-108.014862
22054.687500	-107.146248
22078.125000	-108.150024
22101.562500	-108.357124
22125.000000	-108.682182
22148.437500	-108.175446
22171.875000	-108.740845
22195.312500	-108.400436
22218.750000	-108.715622
22242.187500	-108.348648
22265.625000	-108.528114
22289.062500	-108.833931
22312.500000	-108.963150
22335.937500	-108.598274
22359.375000	-108.305443
22382.812500	-108.729439
22406.250000	-108.295311
22429.687500	-109.105072
22453.125000	-108.978951
22476.562500	-108.795906
22500.000000	-108.292252
22523.437500	-108.807541
22546.875000	-108.112801
22570.312500	-107.901817
22593.750000	-106.407616
22617.187500	-108.830696
22640.625000	-109.183647
22664.062500	-109.119247
22687.500000	-109.470551
22710.937500	-109.366318
22734.375000	-109.628777
22757.812500	-109.882256
22781.250000	-109.429596
22804.687500	-108.583237
22828.125000	-109.405373
22851.562500	-108.822014
22875.000000	-109.581848
22898.437500	-109.871788
22921.875000	-110.168266
22945.312500	-109.897133
22968.750000	-110.039200
22992.187500	-109.834595
23015.625000	-109.832542
23039.062500	-109.889954
23062.500000	-109.813271
23085.937500	-109.838120
23109.375000	-109.772980
23132.812500	-109.758759
23156.250000	-109.082870
23179.687500	-110.335899
23203.125000	-110.164139
23226.562500	-110.590340
23250.000000	-110.012604
23273.437500	-110.958916
23296.875000	-110.678802
23320.312500	-110.467445
23343.750000	-109.529465
23367.187500	-110.044754
23390.625000	-110.125389
23414.062500	-110.136734
23437.500000	-110.475983
23460.937500	-110.732033
23484.375000	-110.815552
23507.812500	-110.669525
23531.250000	-110.729057
23554.687500	-110.182556
23578.125000	-110.396347
23601.562500	-109.865372
23625.000000	-110.469582
23648.437500	-110.363960
23671.875000	-110.637337
23695.312500	-110.613625
23718.750000	-110.687561
23742.187500	-110.313538
23765.625000	-110.575691
23789.062500	-110.437119
23812.500000	-110.698334
23835.937500	-110.811676
23859.375000	-110.834190
23882.812500	-110.983971
23906.250000	-110.613930
23929.687500	-110.639458
23953.125000	-110.465553
23976.562500	-110.544327
